#Wave		#Intensity
1309.277344	4193.988770
1308.213867	4215.326172
1307.150391	4278.479004
1306.087891	4218.372559
1305.024414	4215.155273
1303.959961	4183.511230
1302.896484	4173.195801
1301.832031	4231.554199
1300.767578	4136.001953
1299.703125	4113.865234
1298.637695	4115.401855
1297.573242	4116.937012
1296.507813	4153.954590
1295.442383	4110.543457
1294.376953	4142.816895
1293.310547	3988.309570
1292.244141	4034.775391
1291.177734	4067.042969
1290.111328	4000.062744
1289.044922	3970.905029
1287.977539	3899.246826
1286.910156	3938.596924
1285.842773	4041.671631
1284.775391	4012.526367
1283.708008	3945.635254
1282.639648	3885.848877
1281.571289	3868.545654
1280.502930	3945.584473
1279.433594	3716.063477
1278.365234	3811.960205
1277.295898	3848.893799
1276.226563	3805.691650
1275.156250	3736.590820
1274.086914	3740.538330
1273.016602	3793.938965
1271.946289	3701.335938
1270.875977	3681.745850
1269.805664	3645.688477
1268.734375	3574.348633
1267.663086	3679.483398
1266.591797	3761.053223
1265.520508	3680.325439
1264.448242	3507.935059
1263.375977	3542.474609
1262.304688	3584.050049
1261.231445	3609.159912
1260.159180	3521.495850
1259.085938	3600.628418
1258.012695	3447.249756
1256.939453	3573.319580
1255.866211	3445.829102
1254.791992	3391.141602
1253.717773	3465.524170
1252.643555	3593.830078
1251.569336	3332.752930
1250.495117	3451.652832
1249.419922	3340.752930
1248.344727	3347.093506
1247.269531	3259.694092
1246.194336	3371.479980
1245.118164	3382.493652
1244.041992	3306.849854
1242.965820	3280.407715
1241.889648	3272.704102
1240.812500	3309.472900
1239.735352	3247.945068
1238.658203	3195.800537
1237.581055	3143.677246
1236.503906	3229.550293
1235.425781	3280.315918
1234.347656	3244.569092
1233.269531	3239.219238
1232.191406	3170.782471
1231.112305	3142.088135
1230.033203	3265.221436
1228.954102	3301.902588
1227.875000	3175.141602
1226.794922	3218.827881
1225.715820	3131.808838
1224.635742	3103.155762
1223.554688	3219.142334
1222.474609	3080.867676
1221.393555	3131.520996
1220.312500	3018.965332
1219.231445	3034.647949
1218.150391	3078.287109
1217.068359	3175.492432
1215.986328	3097.959473
1214.904297	3067.034912
1213.822266	3096.658936
1212.740234	3005.223389
1211.657227	2972.009033
1210.574219	2992.325684
1209.491211	2968.432861
1208.407227	2988.740967
1207.323242	3034.619385
1206.239258	2947.959229
1205.155273	3026.367676
1204.071289	2965.308105
1202.986328	3055.296143
1201.901367	2954.765625
1200.816406	3107.423096
1199.731445	3113.732666
1198.645508	2959.858887
1197.559570	2991.726807
1196.473633	2895.954834
1195.387695	2888.382324
1194.301758	3043.177490
1193.214844	2926.583008
1192.127930	2986.244629
1191.041016	2872.029053
1189.953125	2927.041016
1188.865234	2963.493164
1187.778320	2944.332031
1186.689453	2860.329346
1185.601563	2857.406494
1184.512695	2868.375244
1183.423828	2883.967773
1182.334961	2922.694580
1181.246094	2878.114746
1180.156250	2970.026855
1179.067383	2971.707520
1177.977539	2885.526367
1176.886719	2889.535156
1175.796875	2921.275635
1174.706055	2860.576172
1173.615234	2901.549072
1172.524414	2829.331055
1171.432617	2904.929688
1170.340820	2920.470459
1169.249023	2864.450684
1168.157227	2919.223145
1167.065430	2847.076416
1165.972656	2735.746338
1164.879883	2753.610840
1163.787109	2884.447510
1162.694336	2888.440674
1161.600586	2834.813721
1160.506836	2854.944580
1159.413086	2879.674072
1158.319336	2837.598633
1157.224609	2800.146240
1156.129883	2831.777344
1155.035156	2865.696289
1153.940430	2796.043213
1152.844727	2790.841309
1151.749023	2730.434570
1150.653320	2821.839355
1149.557617	2828.130859
1148.460938	2767.753906
1147.365234	2916.548340
1146.268555	2738.989502
1145.170898	2770.562500
1144.074219	2735.513672
1142.976563	2661.441895
1141.878906	2807.801758
1140.781250	2763.585205
1139.682617	2772.168701
1138.584961	2746.333008
1137.486328	2835.200684
1136.387695	2855.229004
1135.288086	2717.041016
1134.188477	2707.284668
1133.089844	2782.331543
1131.989258	2745.068115
1130.889648	2723.856934
1129.789063	2750.752441
1128.688477	2800.534912
1127.587891	2770.166748
1126.487305	2778.722656
1125.385742	2718.622559
1124.284180	2804.974121
1123.182617	2722.019531
1122.081055	2721.429443
1120.978516	2702.548096
1119.875977	2745.394287
1118.773438	2719.658936
1117.670898	2709.928955
1116.567383	2741.322754
1115.463867	2633.382324
1114.360352	2701.313477
1113.256836	2700.726563
1112.152344	2741.223633
1111.048828	2685.860596
1109.944336	2698.965088
1108.838867	2737.154297
1107.734375	2647.620361
1106.628906	2740.522705
1105.523438	2730.807861
1104.417969	2753.002686
1103.311523	2613.415527
1102.205078	2656.127686
1101.098633	2673.768311
1099.992188	2625.368408
1098.884766	2711.302246
1097.778320	2667.466797
1096.670898	2678.261963
1095.562500	2761.852051
1094.455078	2786.268311
1093.346680	2699.247314
1092.238281	2712.298340
1091.129883	2702.613281
1090.020508	2649.754395
1088.911133	2685.527100
1087.801758	2689.482422
1086.692383	2654.828369
1085.583008	2667.870361
1084.472656	2674.096191
1083.362305	2680.318848
1082.251953	2666.117188
1081.140625	2690.486816
1080.029297	2710.309326
1078.917969	2687.039551
1077.806641	2489.217041
1076.695313	2624.663574
1075.583008	2710.197510
1074.470703	2696.009033
1073.358398	2715.802490
1072.245117	2651.798340
1071.131836	2630.838867
1070.018555	2587.252930
1068.905273	2566.316650
1067.791992	2595.165527
1066.677734	2542.567139
1065.563477	2657.347900
1064.448242	2557.275635
1063.333984	2660.699219
1062.218750	2623.951904
1061.103516	2560.105713
1059.988281	2564.059814
1058.872070	2534.133057
1057.756836	2538.090576
1056.640625	2496.894287
1055.523438	2654.340088
1054.407227	2504.819336
1053.290039	2486.217773
1052.172852	2605.215576
1051.055664	2611.405762
1049.937500	2615.338135
1048.819336	2626.031006
1047.701172	2647.986816
1046.583008	2482.924805
1045.463867	2493.638916
1044.345703	2544.885986
1043.226563	2503.794189
1042.106445	2516.746826
1040.987305	2581.457764
1039.867188	2569.635742
1038.747070	2575.815674
1037.626953	2570.747070
1036.505859	2579.172119
1035.384766	2551.623291
1034.263672	2544.314941
1033.142578	2541.503662
1032.020508	2484.774414
1030.898438	2461.761963
1029.776367	2458.970215
1028.654297	2451.689209
1027.531250	2484.814697
1026.408203	2446.112793
1025.285156	2463.518799
1024.162109	2478.673584
1023.038086	2480.365723
1021.914063	2468.603760
1020.790039	2519.613037
1019.666016	2371.136963
1018.541016	2433.348145
1017.416016	2385.763672
1016.291016	2452.422607
1015.165039	2536.964844
1014.040039	2505.059082
1012.914063	2372.449951
1011.788086	2336.119141
1010.661133	2519.046387
1009.534180	2384.285400
1008.407227	2388.226318
1007.280273	2398.872559
1006.153320	2431.865479
1005.025391	2404.507080
1003.897461	2359.287354
1002.769531	2443.640869
1001.640625	2331.436768
1000.511719	2429.154541
999.382813	2357.182373
998.253906	2312.022705
997.125000	2362.823486
995.995117	2411.370850
994.865234	2381.839844
993.734375	2363.470215
992.604492	2396.379883
991.473633	2509.507324
990.342773	2444.328857
989.210938	2419.277588
988.080078	2441.008301
986.948242	2402.608398
985.816406	2368.677734
984.683594	2419.338623
983.551758	2374.292969
982.418945	2389.334473
981.286133	2402.144531
980.152344	2528.357910
979.018555	2347.711426
977.885742	2440.539307
976.750977	2333.325928
975.617188	2297.255371
974.482422	2467.774170
973.347656	2327.315186
972.212891	2366.757080
971.077148	2421.719238
969.942383	2472.218018
968.805664	2376.257813
967.669922	2304.740967
966.534180	2375.190918
965.397461	2350.268066
964.260742	2396.291504
963.123047	2395.753174
961.986328	2392.999023
960.848633	2436.766113
959.710938	2478.298340
958.572266	2342.672119
957.434570	2461.687744
956.295898	2403.589600
955.157227	2299.049316
954.017578	2488.785889
952.877930	2452.837646
951.738281	2531.890869
950.598633	2414.150635
949.458984	2364.981201
948.318359	2337.931396
947.177734	2372.752930
946.037109	2460.569092
944.895508	2411.432617
943.753906	2421.927979
942.612305	2430.211182
941.470703	2414.215820
940.328125	2424.702637
939.185547	2507.975586
938.042969	2379.503174
936.900391	2372.352051
935.756836	2471.009521
934.613281	2430.783691
933.469727	2403.795166
932.326172	2368.007813
931.181641	2343.247559
930.037109	2459.413818
928.892578	2430.241211
927.747070	2473.708252
926.601563	2396.138428
925.456055	2503.387695
924.310547	2487.426514
923.164063	2445.086426
922.018555	2552.251221
920.871094	2472.552246
919.724609	2533.518066
918.577148	2515.370117
917.430664	2492.837402
916.282227	2487.881592
915.134766	2579.522461
913.986328	2572.354004
912.837891	2523.495850
911.689453	2448.333496
910.540039	2528.932617
909.391602	2607.302490
908.242188	2440.092529
907.091797	2527.213623
905.942383	2594.572998
904.791992	2626.847656
903.641602	2525.495117
902.491211	2529.302002
901.339844	2480.562012
900.188477	2628.843018
899.037109	2569.160156
897.884766	2601.395264
896.733398	2627.053467
895.581055	2611.148682
894.427734	2523.100098
893.275391	2531.270508
892.122070	2530.695557
890.968750	2534.490479
889.815430	2525.177002
888.661133	2579.200928
887.506836	2635.383545
886.352539	2560.565186
885.198242	2605.813965
884.042969	2627.040527
882.887695	2687.523193
881.732422	2569.141357
880.577148	2590.361328
879.420898	2567.972412
878.264648	2602.259277
877.108398	2560.266846
875.951172	2638.108398
874.793945	2541.677490
873.636719	2456.177734
872.479492	2568.820557
871.321289	2544.294189
870.163086	2476.259277
869.004883	2480.045898
867.846680	2536.030273
866.687500	2435.426025
865.528320	2415.304688
864.369141	2516.908447
863.208984	2483.739502
862.048828	2435.377930
860.888672	2365.318115
859.728516	2455.981934
858.567383	2327.331543
857.406250	2311.606689
856.245117	2400.050293
855.083984	2386.485352
853.921875	2325.207275
852.759766	2413.586670
851.597656	2378.346680
850.435547	2431.992188
849.272461	2320.916748
848.109375	2318.219971
846.945313	2339.350830
845.782227	2395.121094
844.618164	2333.951416
843.454102	2445.976074
842.289063	2350.197021
841.125000	2328.023682
839.959961	2362.100830
838.794922	2303.170166
837.628906	2339.398926
836.462891	2278.338623
835.296875	2308.072998
834.130859	2316.187012
832.963867	2352.379150
831.796875	2343.201904
830.629883	2454.940674
829.462891	2346.446289
828.294922	2397.704346
827.126953	2323.794922
825.958984	2353.462646
824.790039	2268.813477
823.622070	2363.165039
822.453125	2390.647217
821.283203	2303.891846
820.114258	2344.302734
818.944336	2324.377197
817.774414	2343.227539
816.603516	2381.447754
815.432617	2380.901611
814.261719	2376.050781
813.090820	2390.567627
811.919922	2413.682617
810.748047	2415.279297
809.576172	2337.315918
808.403320	2386.223633
807.231445	2329.794922
806.058594	2367.937744
804.885742	2333.021484
803.711914	2394.770996
802.538086	2353.422363
801.364258	2393.670654
800.190430	2311.561279
799.016602	2345.362793
797.841797	2424.200195
796.666992	2348.574219
795.491211	2369.477295
794.316406	2360.357178
793.140625	2447.690918
791.963867	2378.556885
790.788086	2401.575439
789.611328	2392.455566
788.434570	2359.784424
787.257813	2346.395996
786.080078	2380.102051
784.902344	2356.015137
783.724609	2329.800049
782.545898	2363.485840
781.368164	2437.785889
780.189453	2435.086426
779.009766	2434.525391
777.831055	2506.620117
776.651367	2414.175537
775.471680	2447.794189
774.291992	2395.979004
773.111328	2497.904785
771.930664	2529.345947
770.750000	2513.824707
769.568359	2470.575195
768.386719	2465.739502
767.205078	2535.542969
766.023438	2562.674072
764.840820	2598.318604
763.658203	2533.788086
762.475586	2563.030762
761.292969	2675.331055
760.109375	2610.826904
758.925781	2514.416504
757.742188	2624.521240
756.557617	2609.018555
755.373047	2642.457031
754.188477	2578.033936
753.003906	2573.184814
751.818359	2668.265137
750.632813	2623.010498
749.447266	2686.157715
748.260742	2700.409180
747.074219	2670.046631
745.887695	2716.149658
744.701172	2700.659180
743.513672	2740.365234
742.326172	2701.531982
741.138672	2758.192383
739.950195	2799.978027
738.762695	2829.019775
737.573242	2847.446777
736.384766	2848.907471
735.195313	2744.405273
734.006836	2779.788330
732.816406	2817.273193
731.626953	2890.742188
730.436523	2943.004150
729.246094	2838.600098
728.055664	2886.616943
726.864258	2898.642578
725.672852	2938.161621
724.481445	2895.184082
723.289063	2852.226318
722.097656	2864.248047
720.905273	2880.490479
719.711914	2793.195313
718.519531	2845.356445
717.326172	2838.360596
716.132813	2854.593018
714.938477	2910.924805
713.744141	2859.599365
712.549805	2858.935547
711.355469	2902.569580
710.161133	2863.934814
708.965820	2844.293701
707.769531	2837.309082
706.574219	2771.318604
705.377930	2835.990967
704.181641	2877.461914
702.985352	3043.166992
701.788086	2951.922852
700.591797	2942.816406
699.393555	2927.400635
698.196289	2937.239990
696.998047	3041.734619
695.799805	3110.428223
694.601563	2983.550293
693.402344	3144.716553
692.203125	3202.829346
691.003906	3160.062012
689.804688	3138.320313
688.604492	3110.288086
687.404297	3040.275879
686.204102	3058.460449
685.002930	2891.954102
683.801758	2952.127441
682.600586	2861.239258
681.399414	2822.823242
680.197266	2845.229248
678.995117	2716.697021
677.792969	2682.532227
676.589844	2681.906982
675.386719	2574.449219
674.183594	2504.738281
672.980469	2468.560059
671.776367	2501.476807
670.572266	2496.707764
669.368164	2577.725342
668.163086	2462.073730
666.958008	2428.037842
665.752930	2375.199951
664.546875	2355.832275
663.341797	2388.720215
662.135742	2398.609375
660.928711	2412.671387
659.722656	2405.842773
658.515625	2415.720215
657.308594	2390.106689
656.100586	2433.374023
654.892578	2357.693115
653.684570	2378.001709
652.476563	2402.471436
651.267578	2339.360107
650.058594	2459.714111
648.849609	2394.534424
647.640625	2364.804932
646.430664	2364.251709
645.220703	2428.257813
644.009766	2479.741211
642.799805	2410.468750
641.588867	2407.823486
640.376953	2482.161377
639.166016	2406.696045
637.954102	2472.680664
636.742188	2480.417969
635.529297	2498.544922
634.317383	2458.474365
633.104492	2459.976074
631.890625	2604.803223
630.677734	2635.343262
629.463867	2611.886963
628.250000	2627.880615
627.035156	2608.587158
625.821289	2632.872559
624.606445	2609.437744
623.390625	2561.128662
622.175781	2616.506836
620.959961	2622.111328
619.743164	2636.002197
618.527344	2651.958008
617.310547	2578.837891
616.093750	2661.067139
614.876953	2677.005371
613.659180	2659.817383
612.441406	2607.457275
611.223633	2633.740723
610.004883	2581.410645
608.786133	2527.037354
607.567383	2485.093994
606.348633	2538.251221
605.128906	2473.593018
603.909180	2640.357910
602.689453	2534.395264
601.468750	2606.075195
600.248047	2611.655762
599.027344	2646.130127
597.806641	2542.328613
596.584961	2675.831055
595.363281	2520.505615
594.140625	2548.781738
592.918945	2634.770264
591.696289	2607.354492
590.473633	2549.041748
589.250000	2628.788086
588.026367	2654.944580
586.802734	2691.384521
585.579102	2721.630859
584.354492	2725.105713
583.129883	2856.159180
581.904297	2752.622070
580.679688	2770.483887
579.454102	2833.575439
578.228516	2867.855469
577.001953	2836.348633
575.775391	2874.721191
574.548828	2964.434082
573.322266	2906.225830
572.094727	2903.486084
570.867188	2978.757324
569.639648	3148.404053
568.411133	3231.789307
567.182617	3286.414551
565.954102	3297.943359
564.725586	3379.182861
563.496094	3355.833984
562.266602	3459.564941
561.037109	3509.972168
559.806641	3595.180420
558.576172	3778.654297
557.345703	4256.890625
556.114258	5140.222168
554.882813	6647.347656
553.651367	7208.454590
552.419922	6762.846191
551.187500	5589.376953
549.955078	5044.173828
548.721680	4906.018555
547.489258	4829.239746
546.255859	5034.458496
545.022461	5076.162109
543.788086	5162.774902
542.553711	5437.187012
541.319336	5488.970215
540.084961	5638.686035
538.849609	5486.365723
537.614258	5480.984375
536.377930	5440.936035
535.142578	5386.634277
533.906250	5167.250000
532.668945	5102.848633
531.432617	4832.700195
530.195313	4805.072266
528.958008	4518.830566
527.719727	4383.384766
526.482422	4044.456299
525.244141	3917.326416
524.004883	3741.428467
522.766602	3561.545898
521.527344	3501.726563
520.287109	3368.745850
519.047852	3304.934814
517.807617	3186.288086
516.567383	3173.339844
515.326172	2959.318359
514.084961	2997.195313
512.843750	2955.878418
511.602539	2993.737549
510.360352	2986.936768
509.118164	2903.048584
507.875977	2902.356445
506.632813	2871.248779
505.389648	2892.863525
504.146484	2839.477783
502.903320	2859.062988
501.659180	2921.180176
500.415039	2884.027344
499.169922	2812.470215
497.925781	2840.139404
496.680664	2790.888672
495.434570	2826.642578
494.189453	2870.470703
492.943359	2784.843994
491.696289	2834.726074
490.450195	2872.455566
489.203125	2885.915527
487.956055	2705.403809
486.708008	2743.136230
485.460938	2752.577393
484.211914	2772.108887
482.963867	2729.056152
481.714844	2722.348389
480.465820	2647.046631
479.216797	2710.959229
477.966797	2756.691650
476.717773	2635.063965
475.466797	2727.151611
474.216797	2714.406982
472.965820	2659.360107
471.714844	2634.552002
470.462891	2603.714600
469.210938	2675.565674
467.958984	2614.541748
466.707031	2585.742432
465.454102	2575.062988
464.201172	2614.670166
462.948242	2630.128662
461.694336	2661.661865
460.440430	2683.130371
459.186523	2652.345215
457.932617	2718.000244
456.677734	2699.271240
455.422852	2776.930420
454.166992	2607.638916
452.911133	2609.018555
451.655273	2636.480957
450.399414	2633.840332
449.142578	2554.991943
447.885742	2690.717041
446.628906	2567.792969
445.371094	2543.125977
444.113281	2556.537842
442.855469	2551.915527
441.596680	2689.478760
440.338867	2638.777588
439.079102	2682.176758
437.820313	2733.559326
436.560547	2804.923340
435.300781	2722.239014
434.041016	2885.556396
432.780273	2910.849365
431.519531	2830.197021
430.257813	2853.492188
428.997070	2826.831543
427.735352	2860.102051
426.472656	2905.336670
425.210938	2942.563965
423.948242	2915.906250
422.685547	2963.089111
421.421875	2938.433594
420.158203	2913.789551
418.894531	2956.949707
417.629883	2950.253174
416.366211	2937.580811
415.100586	2901.004883
413.835938	3051.691162
412.570313	2999.172607
411.304688	3050.211426
410.039063	3135.063721
408.772461	3197.984131
407.505859	3197.207764
406.239258	3206.376953
404.971680	3235.427246
403.704102	3330.070313
402.436523	3190.127930
401.167969	3165.507080
399.899414	3174.670898
398.630859	3159.995850
397.362305	3248.583252
396.092773	3235.881836
394.823242	3205.323486
393.552734	3252.165039
392.282227	3324.772217
391.011719	3458.825195
389.741211	3515.483398
388.469727	3471.016113
387.198242	3737.716309
385.925781	3883.424072
384.654297	3959.730469
383.381836	4127.096191
382.108398	4181.526367
380.835938	4245.826172
379.562500	4318.010254
378.288086	4283.322266
377.014648	4323.812988
375.740234	4297.049805
374.465820	4262.390625
373.190430	4261.348633
371.915039	4114.081055
370.639648	4156.536621
369.363281	4108.118652
368.087891	4247.308105
366.810547	4277.853516
365.534180	4347.855957
364.256836	4405.984863
362.979492	4645.567383
361.701172	4825.867676
360.423828	4968.616699
359.145508	5176.344727
357.866211	5604.688965
356.586914	6121.482422
355.307617	6677.416504
354.028320	7518.618652
352.748047	8479.501953
351.467773	9682.011719
350.187500	11525.434570
348.906250	13533.204102
347.625000	15962.855469
346.343750	17982.308594
345.061523	19243.904297
343.779297	19138.935547
342.497070	17524.968750
341.213867	15253.713867
339.931641	12580.969727
338.647461	10486.793945
337.364258	8725.390625
336.080078	7608.549316
334.795898	6523.649414
333.510742	5743.318359
332.225586	5151.630371
330.940430	4713.156738
329.654297	4176.895996
328.369141	3838.816650
327.082031	3641.958740
325.795898	3341.391113
324.508789	3268.114502
323.221680	3120.483154
321.933594	3156.897217
320.646484	2960.448730
319.357422	2826.695068
318.069336	2855.330811
316.780273	2754.907227
315.491211	2793.319580
314.202148	2737.908203
312.912109	2653.217529
311.622070	2750.223633
310.331055	2634.326416
309.041016	2596.578613
307.749023	2595.934082
306.458008	2655.781250
305.166016	2604.399170
303.874023	2512.084473
302.582031	2587.505859
301.289063	2514.734375
299.996094	2551.138428
298.703125	2466.720947
297.409180	2378.449219
296.115234	2547.286621
294.821289	2632.319580
293.526367	2674.486572
292.231445	2794.472900
290.935547	2924.126465
289.640625	3466.063721
288.344727	4400.530762
287.047852	5526.993652
285.751953	6314.709473
284.455078	5745.747070
283.157227	4574.857910
281.860352	3657.029541
280.562500	3201.770752
279.263672	2969.972168
277.965820	2996.398682
276.666992	3005.349609
275.367188	3307.190674
274.068359	3833.829102
272.768555	4590.912109
271.467773	5374.750488
270.166992	6034.178223
268.866211	5691.705078
267.565430	4880.700684
266.263672	4021.695068
264.961914	3523.181152
263.660156	3081.041748
262.357422	2863.565430
261.054688	2582.364258
259.751953	2601.053711
258.448242	2540.464600
257.144531	2421.918701
255.840820	2401.985107
254.536133	2438.086914
253.231445	2447.129883
251.926758	2380.861084
250.621094	2411.148193
249.315430	2474.229492
248.009766	2591.304199
246.703125	2652.378418
245.396484	2582.282227
244.088867	2496.796875
242.782227	2503.876221
241.474609	2537.930420
240.166016	2602.791992
238.857422	2561.686035
237.548828	2587.996094
236.240234	2618.142822
234.930664	2594.384521
233.621094	2730.340332
232.311523	2783.510498
231.000977	2836.653320
229.690430	2953.216553
228.378906	3133.152100
227.067383	3289.935547
225.755859	3711.764893
224.444336	4290.877930
223.131836	5180.773438
221.819336	6312.102539
220.505859	7792.158691
219.192383	9242.679688
217.878906	9177.024414
216.564453	8221.547852
215.250977	7145.767578
213.935547	6162.540527
212.621094	5377.194336
211.305664	4916.023438
209.990234	4681.097656
208.673828	4785.219727
207.357422	5274.075195
206.041016	5978.948242
204.723633	7066.137207
203.406250	8024.605469
202.088867	8060.801270
200.770508	8190.661133
199.452148	8926.375977
198.133789	10762.415039
196.814453	12800.018555
195.495117	15369.455078
194.174805	18252.634766
192.855469	21718.480469
191.535156	24837.107422
190.213867	25614.919922
188.892578	23208.691406
187.571289	18700.251953
186.250000	14224.628906
184.927734	11217.049805
183.605469	9255.258789
182.282227	7479.265137
180.958984	6281.270020
179.635742	5519.924316
178.311523	4932.196289
176.987305	4476.084473
175.663086	4248.520020
174.338867	4038.190674
173.013672	3978.197754
171.687500	3895.421631
170.362305	3877.309082
169.035156	3747.096436
167.708984	3846.809326
166.381836	3954.066406
165.054688	3977.725586
163.727539	4012.760986
162.399414	4228.058105
161.071289	4365.458008
159.742188	4398.466309
158.413086	4368.881836
157.083984	4540.258789
155.754883	4410.204102
154.424805	4462.110840
153.094727	4453.374023
151.763672	4211.709473
150.432617	4021.287354
149.101563	3872.604736
147.769531	3640.738525
146.437500	3374.940430
145.104492	3292.735352
143.772461	3221.917236
142.439453	3069.852539
141.105469	3205.117432
139.771484	3226.952393
138.437500	3029.671631
137.103516	2830.605225
135.768555	2684.501709
134.432617	2625.291748
133.097656	2601.962402
131.761719	2597.508301
130.424805	2608.142822
129.088867	2516.961670
127.751953	2525.725830
126.414063	2402.578857
125.077148	2439.625732
123.738281	2378.716553
122.400391	2393.154785
121.061523	2228.757080
119.722656	2207.469971
118.382813	2180.549316
117.042969	2181.856201
115.703125	2162.477295
114.362305	2220.184814
113.021484	2287.258789
111.680664	2406.906738
110.338867	2695.550049
108.997070	2828.171631
107.655273	2782.365967
106.312500	2284.240479
104.969727	1799.512939
103.625977	1298.157959
102.282227	928.349792
100.938477	684.359436
99.593750	511.727722
98.249023	346.683258
96.904297	221.069031
95.558594	129.234879
94.212891	82.388763
92.867188	54.287258
