#Wave		#Intensity
1111.938477	36.514339
1110.833984	52.489361
1109.729492	43.351952
1108.625000	45.624344
1107.519531	34.211285
1106.415039	41.045174
1105.309570	34.197334
1104.204102	52.425209
1103.097656	41.020046
1101.992188	47.846943
1100.885742	36.447361
1099.779297	25.052435
1098.672852	34.155418
1097.565430	34.148422
1096.458008	36.417522
1095.350586	31.858797
1094.243164	36.402584
1093.135742	45.493889
1092.027344	38.661865
1090.918945	31.832640
1089.810547	45.465851
1088.702148	47.729321
1087.592773	43.174782
1086.483398	40.894001
1085.374023	38.614155
1084.264648	47.690002
1083.154297	40.868713
1082.044922	43.130295
1080.934570	38.582294
1079.823242	40.843399
1078.712891	36.297737
1077.601563	43.094646
1076.490234	40.818058
1075.378906	40.809608
1074.267578	40.801151
1073.155273	33.993912
1072.042969	33.986862
1070.930664	43.041092
1069.818359	38.502457
1068.705078	33.965698
1067.591797	45.278187
1066.478516	47.532211
1065.365234	29.418579
1064.250977	27.149960
1063.137695	45.240509
1062.023438	36.184864
1060.908203	36.177322
1059.793945	38.430389
1058.678711	40.682507
1057.563477	36.154678
1056.448242	42.924713
1055.332031	36.139572
1054.216797	40.648518
1053.100586	42.897793
1051.984375	36.116894
1050.867188	33.852497
1049.750977	29.332685
1048.633789	45.117748
1047.516602	42.852871
1046.398438	49.608704
1045.281250	45.089355
1044.163086	29.301926
1043.044922	42.816891
1041.925781	47.313984
1040.807617	54.061752
1039.688477	56.302475
1038.569336	51.787373
1037.450195	58.529919
1036.330078	51.765556
1035.209961	51.754642
1034.089844	69.741547
1032.969727	62.979069
1031.849609	74.209663
1030.728516	76.442291
1029.607422	78.673965
1028.486328	69.667923
1027.364258	69.653191
1026.242188	83.116859
1025.120117	83.099258
1023.998047	83.081665
1022.875977	80.819084
1021.752930	87.535446
1020.629883	85.272858
1019.506836	96.472496
1018.383789	91.965881
1017.259766	96.431541
1016.135742	112.105873
1015.011719	109.840401
1013.886719	114.299377
1012.762695	103.071625
1011.637695	100.809479
1010.512695	118.705879
1009.386719	127.637619
1008.261719	143.281876
1007.135742	118.630005
1006.009766	136.507294
1004.882813	156.614288
1003.756836	161.054596
1002.629883	158.783813
1001.502930	163.221710
1000.375000	181.070313
999.248047	172.091766
998.120117	165.351517
996.992188	165.316132
995.864258	180.915390
994.735352	209.906235
993.606445	252.280014
992.477539	267.850555
991.348633	241.013809
990.218750	294.509216
989.088867	296.676666
987.958984	327.835388
986.829102	350.061920
985.698242	361.132751
984.567383	369.970062
983.436523	392.173065
982.305664	425.505341
981.174805	436.550262
980.042969	398.600342
978.911133	409.646179
977.778320	376.170044
976.646484	433.948792
975.513672	418.280914
974.380859	424.863953
973.248047	389.189240
972.114258	369.094086
970.980469	435.703705
969.846680	442.277069
968.712891	448.847534
967.578125	419.870483
966.443359	441.990234
965.308594	472.982666
964.173828	492.861115
963.038086	432.824799
961.903320	459.360657
960.766602	470.354370
959.630859	499.088623
958.495117	479.021179
957.358398	512.175354
956.221680	500.980591
955.083984	489.790588
953.947266	522.920715
952.809570	544.959900
951.671875	529.337830
950.533203	484.936340
949.395508	584.453613
948.256836	566.619629
947.118164	522.238770
945.978516	526.549866
944.839844	546.342346
943.700195	570.549072
942.560547	577.057556
941.419922	570.300354
940.280273	632.055481
939.139648	545.747009
937.999023	547.836914
936.857422	585.262451
935.716797	569.678223
934.575195	560.723450
933.432617	525.287476
932.291016	481.040466
931.148438	414.751495
930.005859	403.632538
928.863281	326.363617
927.720703	277.789276
926.577148	244.665527
925.433594	196.130280
924.290039	152.022736
923.145508	165.205887
922.001953	136.540253
920.857422	149.720978
919.711914	125.473862
918.567383	114.442261
917.421875	110.016472
916.276367	94.593384
915.130859	120.964951
913.984375	112.142845
912.837891	120.911774
911.691406	103.301880
910.544922	116.463730
909.397461	85.680862
908.250977	96.644310
907.102539	96.623032
905.955078	94.406250
904.807617	114.140541
903.659180	111.920860
902.510742	111.896187
901.361328	94.323036
900.211914	107.460678
899.063477	96.474007
897.913086	98.644814
896.763672	103.006279
895.613281	87.645554
894.462891	111.723389
893.312500	85.416649
892.162109	96.346199
891.010742	89.757286
889.859375	87.548714
888.708008	89.717575
887.555664	94.073212
886.403320	107.175972
885.250977	115.899361
884.098633	89.638130
882.945313	93.989891
881.792969	87.413078
880.639648	89.578537
879.485352	80.821236
878.332031	76.435562
877.177734	89.518929
876.023438	96.047768
874.868164	96.026443
873.713867	85.095444
872.558594	93.802338
871.402344	89.419556
870.247070	82.858238
869.090820	80.659821
867.934570	89.359924
866.778320	93.698090
865.622070	91.498703
864.464844	76.231941
863.307617	78.392540
862.150391	78.375084
860.992188	78.357620
859.833984	91.396851
858.675781	82.673958
857.517578	87.005814
856.358398	78.287773
855.199219	73.921959
854.040039	71.731773
852.880859	73.888969
851.720703	67.354309
850.560547	84.717148
849.400391	76.011223
848.239258	65.137924
847.079102	69.464920
845.917969	71.619690
844.755859	62.924438
843.594727	58.571720
842.432617	67.233963
841.270508	73.723976
840.108398	75.875343
838.945313	71.523590
837.782227	88.842743
836.619141	77.990791
835.456055	80.139244
834.291992	77.955841
833.127930	75.773415
831.963867	75.756424
830.798828	82.231384
829.634766	75.722443
828.469727	69.216408
827.303711	75.688454
826.138672	73.509422
824.972656	95.108482
823.806641	84.281761
822.640625	97.226341
821.473633	92.884293
820.306641	73.426888
819.139648	77.728638
817.972656	77.711159
816.804688	75.535522
815.636719	79.833870
814.468750	86.287468
813.299805	88.424744
812.130859	84.092407
810.961914	94.852119
809.792969	86.209778
808.624023	66.797523
807.454102	77.553841
806.284180	73.228783
805.113281	73.212273
803.943359	62.431679
802.772461	64.569931
801.600586	71.010895
800.429688	58.086716
799.257813	66.677101
798.085938	70.962830
796.914063	58.047386
795.741211	64.482529
794.569336	53.723301
793.396484	64.453392
792.222656	62.290867
791.049805	68.719208
789.875977	57.968723
788.701172	62.248623
787.527344	49.358429
786.352539	51.492798
785.177734	53.626190
784.002930	45.035805
782.827148	51.457840
781.652344	57.876961
780.476563	60.006958
779.299805	53.565502
778.124023	53.553364
776.947266	53.541229
775.769531	36.399784
774.592773	49.235600
773.415039	53.504818
772.237305	51.352974
771.059570	68.455101
769.881836	53.468410
768.703125	36.350269
767.524414	57.719673
766.344727	51.294727
765.166016	55.556667
763.986328	44.862499
762.805664	46.988132
761.625977	40.571438
760.445313	55.506191
759.264648	53.359203
758.083984	46.945423
756.902344	49.068146
755.721680	31.993685
754.539063	44.780968
753.357422	51.166603
752.174805	40.497677
750.992188	51.143314
749.809570	44.740211
748.626953	53.250027
747.443359	46.849350
746.259766	53.225769
745.076172	40.442368
743.891602	44.689270
742.707031	42.551506
741.522461	44.668896
740.337891	53.165131
739.152344	48.900764
737.966797	48.889610
736.781250	34.002403
735.594727	50.991966
734.408203	55.228687
733.221680	38.226517
732.035156	44.587418
730.847656	40.331787
729.660156	40.322575
728.472656	44.556873
727.285156	53.031776
726.096680	50.898869
724.908203	42.406029
723.718750	33.917068
722.530273	44.505970
721.340820	40.258099
720.151367	55.077427
718.960938	55.064823
717.771484	42.347866
716.581055	44.455082
715.389648	33.862785
714.199219	38.086910
713.007813	46.540009
711.816406	54.989231
710.625000	35.946259
709.432617	52.850037
708.240234	48.610889
707.047852	42.260651
705.854492	46.476059
704.662109	57.025723
703.467773	54.901066
702.274414	52.777382
701.081055	50.654663
699.886719	42.202534
698.691406	54.850704
697.497070	48.510639
696.301758	56.934200
695.106445	59.029320
693.911133	46.369530
692.714844	52.680546
691.518555	63.202133
690.322266	61.081360
689.125977	65.278862
687.928711	52.632145
686.731445	65.248863
685.534180	65.233856
684.335938	61.011192
683.137695	50.480408
681.939453	71.497467
680.741211	69.378632
679.541992	77.770264
678.342773	69.346710
677.143555	92.440994
675.943359	77.716583
674.744141	79.798653
673.543945	90.277679
672.342773	81.860901
671.141602	73.447990
669.941406	102.803490
668.739258	88.096977
667.538086	100.659058
666.335938	71.283730
665.133789	98.516556
663.931641	79.633316
662.728516	77.519821
661.525391	81.691238
660.322266	81.672394
659.118164	87.934593
657.914063	85.821106
656.709961	81.615875
655.505859	106.703812
654.300781	79.486450
653.095703	73.194298
651.890625	87.812874
650.685547	79.431396
649.479492	71.053780
648.273438	81.484032
647.066406	64.754395
645.860352	87.711479
644.653320	73.076012
643.446289	79.321327
642.238281	91.824509
641.030273	83.457520
639.822266	75.094398
638.614258	64.649666
637.405273	68.804688
636.196289	93.802864
634.987305	75.024925
633.778320	68.756927
632.568359	89.571625
631.358398	74.972832
630.147461	77.037567
628.937500	66.611656
627.726563	97.813210
626.515625	87.387299
625.303711	87.367058
624.091797	74.868690
622.879883	95.643379
621.667969	91.463768
620.455078	112.224960
619.242188	97.654633
618.029297	101.786545
616.815430	99.686142
615.602539	91.357765
614.387695	89.260742
613.173828	80.938629
611.958984	87.144447
610.744141	91.272995
609.529297	74.660568
608.314453	82.936928
607.098633	68.407082
605.882813	82.898415
604.666016	74.591248
603.449219	64.216431
602.232422	64.201508
601.015625	64.186592
599.798828	72.451889
598.581055	70.365479
597.363281	70.349121
596.144531	68.264153
594.925781	62.043888
593.707031	62.029461
592.488281	64.082199
591.268555	53.733856
590.049805	55.787560
588.829102	59.906029
587.609375	57.826843
586.388672	66.072441
585.167969	61.928490
583.947266	59.850269
582.725586	49.519722
581.503906	66.010918
580.282227	57.746101
579.059570	72.165810
577.837891	53.596397
576.614258	59.766666
575.391602	59.752739
574.167969	67.978645
572.944336	72.081757
571.720703	82.359947
570.497070	80.282219
569.272461	72.031342
568.047852	67.899429
566.822266	84.340210
565.596680	67.867744
564.371094	86.356979
563.145508	78.114265
561.918945	96.592468
560.693359	96.569916
559.465820	110.926765
558.239258	96.524826
557.011719	96.502281
555.784180	119.060104
554.556641	131.345978
553.328125	149.781509
552.099609	192.824265
550.871094	174.321625
549.641602	209.137054
548.412109	215.237808
547.182617	245.928558
545.953125	288.898499
544.722656	307.266937
543.492188	342.010529
542.261719	370.595337
541.030273	397.119751
539.798828	407.259491
538.567383	478.775970
537.335938	435.706879
536.103516	562.400696
534.871094	619.518250
533.637695	668.432434
532.405273	760.240479
531.171875	843.832703
529.937500	988.666748
528.704102	1223.290649
527.469727	1533.348877
526.235352	2212.730469
525.000000	3406.071777
523.765625	5410.895508
522.530273	10637.709961
521.293945	21392.791016
520.058594	32428.271484
518.822266	29128.658203
517.584961	16523.425781
516.348633	8257.737305
515.111328	4426.314453
513.874023	2851.075195
512.635742	1834.439941
511.398438	1449.294800
510.160156	1068.400513
508.920898	852.485168
507.682617	770.921265
506.443359	542.975281
505.204102	489.986145
503.963867	380.107422
502.723633	347.503174
501.483398	323.041077
500.243164	272.184479
499.001953	261.966736
497.760742	227.390518
496.519531	202.979523
495.277344	211.049057
494.035156	176.509140
492.792969	162.269073
491.550781	160.203018
490.307617	160.165329
489.064453	141.885254
487.820313	147.931213
486.577148	141.818466
485.333008	135.708572
484.087891	111.376335
482.843750	123.497398
481.598633	113.347961
480.353516	99.156105
479.107422	111.271446
477.861328	107.199951
476.615234	111.219017
475.369141	90.975937
474.122070	92.975700
472.875000	78.808647
471.627930	103.033157
470.379883	70.692360
469.131836	80.772217
467.883789	78.734337
466.635742	68.623993
465.386719	78.697189
464.137695	66.574219
462.887695	60.507732
461.638672	80.657936
460.388672	60.479172
459.137695	66.511383
457.887695	44.330448
456.636719	48.349072
455.385742	72.506477
454.133789	76.516533
452.881836	76.498451
451.629883	82.518303
450.377930	102.620461
449.125000	92.537750
447.872070	104.583168
446.618164	106.569176
445.365234	96.492661
444.111328	106.518784
442.857422	116.540154
441.602539	102.450714
440.347656	108.451561
439.092773	116.457451
437.836914	128.474365
436.582031	132.457825
435.326172	144.465225
434.069336	146.437012
432.813477	142.391312
431.556641	138.347519
430.298828	160.364929
429.041992	138.281982
427.784180	146.263657
426.525391	152.238403
425.267578	118.157066
424.008789	138.150940
422.750000	114.097626
421.491211	142.087906
420.231445	124.047340
418.971680	116.016762
417.710938	109.989792
416.451172	141.953140
415.190430	107.938736
413.928711	137.888992
412.667969	113.881256
411.406250	111.856781
410.144531	119.818092
408.881836	109.807167
407.619141	131.737305
406.356445	119.732742
405.093750	109.728935
403.830078	135.632629
402.566406	127.623901
401.302734	119.618973
400.038086	119.590530
398.773438	121.554802
397.508789	123.518120
396.243164	123.488747
394.977539	129.433212
393.711914	133.384033
392.446289	127.381294
391.179688	121.381409
389.913086	135.278214
388.645508	139.223831
387.378906	139.190689
386.111328	121.265854
384.842773	157.011826
383.575195	156.974411
382.306641	133.098480
381.037109	131.080704
379.768555	131.049469
378.499023	144.914093
377.229492	138.925598
375.958984	140.876648
374.688477	162.663818
373.417969	142.792694
372.147461	148.706909
370.875977	138.760010
369.604492	156.563202
368.332031	154.544510
367.060547	152.526749
365.788086	174.274673
364.514648	150.473999
363.242188	166.273651
361.968750	160.297012
360.694336	176.086731
359.420898	162.198456
358.146484	158.204575
356.872070	148.281342
355.596680	166.035400
354.321289	173.900269
353.045898	165.956009
351.770508	163.941132
350.494141	167.851364
349.217773	193.476440
347.941406	185.535034
346.664063	171.677505
345.386719	161.772247
344.109375	171.595322
342.831055	185.357437
341.552734	183.341629
340.274414	177.384888
338.995117	191.135681
337.715820	175.329895
336.436523	173.318344
335.157227	204.781677
333.876953	194.889679
332.596680	202.715393
331.315430	222.343155
330.034180	200.650986
328.752930	226.169891
327.471680	233.980515
326.189453	247.684616
324.907227	239.764038
323.625000	286.861847
322.341797	229.827240
321.058594	261.193878
319.775391	288.618622
318.491211	257.142548
317.207031	294.367279
315.922852	337.460022
314.638672	351.109467
313.353516	313.765411
312.067383	339.177246
310.782227	380.257599
309.496094	382.125732
308.209961	434.930786
306.923828	468.123627
305.636719	501.300446
304.349609	550.123108
303.061523	591.093140
301.774414	602.691528
300.485352	618.196899
299.197266	578.931030
297.908203	463.424316
296.619141	445.718475
295.330078	371.342529
294.040039	326.311859
292.750000	326.233154
291.459961	292.953125
290.169922	259.689117
288.878906	255.722305
287.586914	228.338089
286.295898	239.989792
285.003906	239.931854
283.711914	237.923721
282.418945	222.268478
281.126953	208.570023
279.833008	224.109879
278.540039	198.727692
277.246094	198.679657
275.952148	192.789520
274.658203	179.114624
273.363281	214.106995
272.068359	180.973953
270.772461	208.166962
269.477539	200.336533
268.181641	188.620773
266.884766	173.022522
265.588867	165.206223
264.291992	157.393692
262.994141	176.782166
261.697266	155.375244
260.399414	145.628998
259.100586	145.593704
257.802734	163.025406
256.503906	143.582794
255.205078	164.886185
253.905273	160.967453
252.605469	131.844955
251.305664	166.704620
250.004883	141.470734
248.704102	147.248840
247.403320	153.024139
246.102539	137.494614
244.800781	143.269440
243.499023	154.848236
242.196289	156.745743
240.893555	121.883713
239.590820	137.327606
238.288086	129.559326
236.984375	129.527817
235.680664	133.361862
234.375977	121.735542
233.072266	121.705910
231.767578	123.607651
230.461914	131.301147
229.156250	104.243164
227.850586	111.937599
226.544922	133.134689
225.238281	123.457153
223.931641	121.498505
222.625000	98.331955
221.317383	77.104286
220.009766	71.304070
218.702148	96.333336
217.393555	75.121666
216.084961	86.657684
214.776367	71.234474
213.466797	75.066650
212.157227	63.502415
210.847656	76.953819
209.537109	78.858383
208.226563	71.147484
206.916016	73.052528
205.604492	69.190727
204.292969	61.487823
202.981445	57.630730
201.668945	57.616627
200.356445	78.723442
199.043945	71.025711
197.731445	69.089172
196.417969	53.722858
195.103516	84.400948
193.790039	61.367462
192.475586	67.104210
191.161133	49.836617
189.845703	42.159103
188.530273	55.559727
187.214844	51.715328
185.898438	51.702633
184.582031	57.433266
183.265625	47.849300
181.949219	61.232059
180.631836	43.999729
179.314453	49.726601
177.996094	53.538559
176.677734	59.260262
175.359375	45.867626
174.040039	61.141792
172.720703	47.755268
171.401367	53.472736
170.082031	63.005924
168.761719	55.355206
167.441406	53.433243
166.120117	62.959377
164.798828	53.406910
163.477539	61.021423
162.155273	43.848331
160.833008	57.179371
159.510742	51.448738
158.188477	53.341080
156.865234	57.137051
155.541992	62.835236
154.217773	43.783440
152.893555	57.094727
151.569336	60.885990
150.244141	70.382027
148.918945	64.659386
147.593750	70.347221
146.268555	68.429016
144.942383	57.010071
143.615234	58.895824
142.289063	62.680035
140.961914	49.372040
139.634766	49.359810
138.306641	53.143547
136.978516	62.617943
135.650391	64.499458
134.321289	70.173187
132.992188	56.883064
131.663086	51.182053
130.333984	73.911285
129.003906	53.051338
127.672852	62.509262
126.342773	53.024986
125.011719	62.478207
123.679688	58.677063
122.348633	66.231827
121.016602	62.431618
119.683594	54.850502
118.351563	54.836853
117.018555	62.385025
115.684570	66.149460
114.351563	60.464443
113.017578	51.004166
111.682617	45.325737
110.348633	47.202541
109.013672	54.741295
107.677734	62.276279
106.341797	58.487366
105.005859	43.383022
103.669922	33.943455
102.333008	16.967489
100.996094	13.193639
99.659180	13.190342
98.321289	13.187045
96.983398	7.533570
95.644531	1.882922
94.305664	0.000000
92.966797	3.763959
91.627930	1.881508
90.288086	1.881037
88.948242	0.000000
87.607422	0.000000
86.266602	-1.879624
84.925781	0.000000
83.584961	-1.878681
82.243164	-1.878210
80.900391	0.000000
79.558594	0.000000
78.215820	5.630386
76.873047	3.752648
75.529297	-3.751705
74.185547	-3.750762
72.841797	3.749819
71.497070	1.874438
70.152344	1.873966
68.807617	-1.873495
67.461914	-3.746046
66.116211	5.617653
64.770508	1.872079
63.423828	3.743215
62.077148	5.613407
60.729492	3.741328
59.381836	7.480768
58.034180	1.869720
56.686523	1.869248
55.337891	0.000000
53.989258	5.604911
52.639648	-1.867832
51.290039	3.734719
49.940430	0.000000
48.590820	-1.866415
47.240234	-3.731886
45.888672	3.730941
44.538086	1.864998
43.186523	-1.864526
41.833984	1.864053
40.482422	7.454323
39.129883	0.000000
37.776367	3.725271
36.422852	-1.862163
35.069336	0.000000
33.715820	3.722435
32.361328	3.721490
31.006836	1.860272
29.651367	1.859799
28.296875	1.859326
26.940430	0.000000
25.584961	3.716761
24.228516	5.573721
22.872070	13.002039
21.514648	3.713922
20.157227	3.712976
18.799805	5.568043
17.441406	3.711082
16.083008	16.695610
14.724609	9.272971
13.365234	12.978846
12.005859	11.121883
10.645508	11.119042
9.285156	18.527000
7.924805	31.487848
6.564453	42.590309
5.203125	46.281971
3.841797	77.733810
2.479492	164.679459
1.117188	479.112976
-0.245117	1006.064331
-1.608398	1338.609985
-2.971680	1242.148071
-4.334961	894.412842
-5.699219	301.140259
-7.063477	77.574493
-8.428711	51.703049
-9.793945	33.229134
-11.159180	23.992649
-12.524414	12.915797
-13.890625	12.912475
-15.256836	14.753316
-16.624023	18.436897
-17.991211	12.902504
-19.358398	5.528220
-20.726563	5.526795
-22.094727	3.683580
-23.463867	5.523944
-24.832031	5.522519
-26.202148	3.680729
-27.571289	-1.839889
-28.941406	1.839414
-30.311523	3.677876
-31.682617	3.676925
-33.053711	1.837987
-34.424805	0.000000
-35.796875	3.674071
-37.168945	-1.836560
-38.541016	-3.672168
-39.914063	1.835608
-41.287109	3.670264
-42.661133	1.834656
-44.035156	1.834180
-45.409180	0.000000
-46.784180	-3.666454
-48.159180	-1.832751
-49.534180	1.832274
-50.910156	3.663595
-52.286133	-1.831321
-53.662109	-1.830844
-55.039063	3.660735
-56.416016	0.000000
-57.793945	0.000000
-59.171875	3.657873
-60.549805	0.000000
-61.928711	-3.655965
-63.307617	0.000000
-64.686523	5.481083
-66.066406	1.826550
-67.446289	0.000000
-68.826172	0.000000
-70.207031	1.825117
-71.587891	0.000000
-72.969727	1.824162
-74.351563	3.647368
-75.733398	1.823206
-77.116211	1.822728
-78.499023	1.822250
-79.882813	1.821771
-81.266602	5.463879
-82.650391	1.820814
-84.034180	1.820336
-85.418945	1.819857
-86.804688	1.819378
-88.189453	0.000000
-89.575195	5.455262
-90.961914	1.817942
-92.348633	3.634925
-93.735352	1.816983
-95.122070	0.000000
-96.509766	1.816025
-97.898438	1.815545
-99.286133	0.000000
-100.675781	3.629172
-102.064453	1.814106
-103.454102	3.627253
-104.843750	0.000000
-106.234375	3.625333
-107.625000	3.624372
-109.015625	0.000000
-110.407227	1.811226
-111.798828	-1.810745
-113.190430	0.000000
-114.583008	1.809784
-115.975586	0.000000
-117.369141	5.426466
-118.762695	-1.808341
-120.156250	3.615720
-121.550781	0.000000
-122.945313	1.806898
-124.340820	0.000000
-125.735352	1.805935
-127.131836	1.805453
-128.527344	1.804971
-129.923828	1.804490
-131.321289	-3.608016
-132.718750	5.410577
-134.116211	1.803044
-135.513672	0.000000
-136.912109	5.406237
-138.311523	5.404789
-139.709961	1.801114
-141.109375	-1.800631
-142.509766	0.000000
-143.910156	-1.799666
-145.310547	5.397548
-146.711914	0.000000
-148.113281	1.798216
-149.514648	0.000000
-150.916992	0.000000
-152.319336	0.000000
-153.722656	0.000000
